Cree White
Date: Taken from the Claude Operating Room Project									
Time										
Integration time [ms]									
Illuminance[lx]										
Irradiance[W/sqm]										
CCT [K]: x
wavelength [nm]	Irradiance[W/(sqm*nm)]	
380	0
381	0
382	1e-06
383	1e-06
384	3e-06
385	0
386	2e-06
387	1e-06
388	2e-06
389	0
390	2e-06
391	3e-06
392	2e-06
393	3e-06
394	3e-06
395	4e-06
396	4e-06
397	2e-06
398	1e-06
399	3e-06
400	2e-06
401	1e-06
402	5e-06
403	4e-06
404	5e-06
405	4e-06
406	5e-06
407	5e-06
408	5e-06
409	7e-06
410	7e-06
411	7e-06
412	1e-05
413	1e-05
414	1.1e-05
415	1.5e-05
416	1.6e-05
417	2e-05
418	2.4e-05
419	2.6e-05
420	3.1e-05
421	3.9e-05
422	4.6e-05
423	5e-05
424	5.8e-05
425	7.3e-05
426	7.8e-05
427	8.7e-05
428	0.000102
429	0.000111
430	0.000134
431	0.000146
432	0.000164
433	0.000176
434	0.000209
435	0.000231
436	0.000252
437	0.000279
438	0.000327
439	0.000356
440	0.000387
441	0.000421
442	0.000454
443	0.000537
444	0.000592
445	0.000632
446	0.000687
447	0.000788
448	0.000845
449	0.000884
450	0.000934
451	0.001015
452	0.001051
453	0.001071
454	0.001092
455	0.001088
456	0.001075
457	0.001043
458	0.001016
459	0.00094
460	0.000898
461	0.000848
462	0.000797
463	0.000714
464	0.000679
465	0.000633
466	0.000607
467	0.000575
468	0.000528
469	0.000504
470	0.000489
471	0.000467
472	0.000431
473	0.000416
474	0.000398
475	0.000386
476	0.000354
477	0.000339
478	0.000325
479	0.000312
480	0.000289
481	0.000279
482	0.000269
483	0.000266
484	0.000253
485	0.000248
486	0.000244
487	0.000245
488	0.000244
489	0.000244
490	0.000243
491	0.000245
492	0.000247
493	0.000246
494	0.000245
495	0.000245
496	0.000245
497	0.000246
498	0.000246
499	0.000247
500	0.000248
501	0.000258
502	0.000269
503	0.000281
504	0.000293
505	0.000312
506	0.000326
507	0.000341
508	0.000353
509	0.00038
510	0.000395
511	0.000404
512	0.000416
513	0.000445
514	0.000457
515	0.000467
516	0.000479
517	0.000486
518	0.000515
519	0.000528
520	0.000536
521	0.000547
522	0.000572
523	0.00058
524	0.000587
525	0.000596
526	0.000611
527	0.000619
528	0.00063
529	0.000637
530	0.000649
531	0.000656
532	0.000661
533	0.000667
534	0.000673
535	0.000676
536	0.000681
537	0.000689
538	0.000692
539	0.000696
540	0.0007
541	0.000706
542	0.000706
543	0.000714
544	0.000717
545	0.000715
546	0.000717
547	0.000718
548	0.000726
549	0.00072
550	0.000728
551	0.000727
552	0.000725
553	0.000727
554	0.000728
555	0.000726
556	0.000725
557	0.000721
558	0.000731
559	0.000721
560	0.000725
561	0.000728
562	0.000721
563	0.000726
564	0.000716
565	0.000724
566	0.000718
567	0.000714
568	0.000718
569	0.000711
570	0.000711
571	0.000707
572	0.000707
573	0.000705
574	0.000698
575	0.000696
576	0.000702
577	0.000695
578	0.000688
579	0.000687
580	0.000682
581	0.000681
582	0.000675
583	0.000668
584	0.000672
585	0.000661
586	0.000658
587	0.000651
588	0.00065
589	0.000648
590	0.00064
591	0.000637
592	0.000633
593	0.000627
594	0.000628
595	0.000614
596	0.000615
597	0.000601
598	0.000597
599	0.000598
600	0.000592
601	0.000584
602	0.000575
603	0.000572
604	0.000566
605	0.000556
606	0.00055
607	0.000548
608	0.000536
609	0.000529
610	0.000528
611	0.000523
612	0.00051
613	0.000507
614	0.000502
615	0.000497
616	0.000485
617	0.000485
618	0.000474
619	0.000474
620	0.000461
621	0.000455
622	0.000447
623	0.000449
624	0.000436
625	0.000427
626	0.000427
627	0.000416
628	0.000407
629	0.000399
630	0.000397
631	0.000389
632	0.000379
633	0.000376
634	0.000374
635	0.000363
636	0.000358
637	0.000353
638	0.000344
639	0.000337
640	0.000331
641	0.000325
642	0.000313
643	0.000309
644	0.000307
645	0.000301
646	0.000297
647	0.000292
648	0.000283
649	0.000283
650	0.000267
651	0.000268
652	0.000263
653	0.000255
654	0.00025
655	0.000244
656	0.000241
657	0.000235
658	0.000232
659	0.000226
660	0.000223
661	0.000216
662	0.000211
663	0.000213
664	0.000202
665	0.000202
666	0.000197
667	0.00019
668	0.000186
669	0.000185
670	0.00018
671	0.000177
672	0.000171
673	0.000169
674	0.000165
675	0.000156
676	0.000159
677	0.000153
678	0.000152
679	0.000148
680	0.000141
681	0.000139
682	0.000137
683	0.000134
684	0.000129
685	0.000127
686	0.000123
687	0.000122
688	0.000121
689	0.000118
690	0.000113
691	0.000112
692	0.000112
693	0.000105
694	0.000103
695	0.000103
696	9.9e-05
697	9.7e-05
698	9.3e-05
699	9.1e-05
700	9e-05
701	8.6e-05
702	8.4e-05
703	8.1e-05
704	8e-05
705	8.1e-05
706	7.8e-05
707	7.5e-05
708	7.4e-05
709	7.3e-05
710	7e-05
711	6.6e-05
712	6.7e-05
713	6.6e-05
714	6.3e-05
715	6.2e-05
716	6e-05
717	5.9e-05
718	5.7e-05
719	5.3e-05
720	5.4e-05
721	5.3e-05
722	5.3e-05
723	5.3e-05
724	4.9e-05
725	4.8e-05
726	4.6e-05
727	4.6e-05
728	4.5e-05
729	4.3e-05
730	4.2e-05
731	4.2e-05
732	3.9e-05
733	4e-05
734	3.8e-05
735	3.8e-05
736	3.7e-05
737	3.7e-05
738	3.7e-05
739	3.4e-05
740	3.2e-05
741	3.2e-05
742	3.1e-05
743	2.9e-05
744	3.1e-05
745	3.1e-05
746	3e-05
747	2.8e-05
748	2.6e-05
749	2.7e-05
750	2.5e-05
751	2.6e-05
752	2.6e-05
753	2.4e-05
754	2.3e-05
755	2.3e-05
756	2.3e-05
757	2.2e-05
758	2.2e-05
759	2.1e-05
760	2.1e-05
761	1.8e-05
762	1.9e-05
763	2e-05
764	1.9e-05
765	1.7e-05
766	1.7e-05
767	1.6e-05
768	1.6e-05
769	1.8e-05
770	1.6e-05
771	1.4e-05
772	1.4e-05
773	1.6e-05
774	1.6e-05
775	1.5e-05
776	1.3e-05
777	1.2e-05
778	1.3e-05
779	1.1e-05
780	1.2e-05
